URL	chrom://isq7ci2006004/ChromeleonLocal/Instrument Data/Aspuru-Guzik/Stanley/2024_12_16_005c-H.seq/306.smp/MSDevice.xraw
Channel	TIC

Injection Information:
Data Vault	ChromeleonLocal
Sequence	2024_12_16_005c-H
Name	005c-H3F_conc
Number	7
Position	5
Comment	
Processing Method	Basic Quantitative
Instrument Method	2024_12_16_005c-H - Copy
Type	Unknown
Status	Finished
Inject Time	12/16/2024 3:47:11 PM -05:00
Volume (µl)	3.0000
Dilution Factor	1.0000
Weight	1.0000

Raw Data Information:
Data Points	273
Mass Min. (m/z)	150.000000
Mass Max. (m/z)	399.968075
Retention Time (min)	3.976530
Mass Resolution	0.500000
Tolerance Unit	Amu
Scan Number	435
Scan Type	+ c EI Full ms [150.00-400.00]
Is Centroid Scan	True
Base Peak Mass	207.039642
Base Peak Intensity	810705.500000
Total Ion Count	5683536.903661

Raw Data:
Mass (m/z)	Value (counts)
150.4	5493.281250
151.2	8634.488281
151.9	17853.496094
153.2	20331.386719
154.0	12842.811523
155.1	3287.734375
156.1	8204.393555
156.8	7964.954102
157.7	1170.117310
159.1	32091.011719
159.7	3322.745117
160.2	7008.360840
161.1	433328.031250
162.2	61853.203125
163.1	35846.652344
164.1	8190.903320
164.9	61010.195313
165.8	8753.033203
166.6	9436.154297
167.2	13941.177734
168.0	5474.004395
169.1	726.794189
169.9	1173.035156
171.1	3827.207520
172.2	3221.424316
173.3	7193.979980
173.8	3400.798828
174.9	7296.062988
175.9	16427.052734
177.0	35007.835938
178.0	47134.968750
179.0	56464.621094
180.1	11180.499023
181.0	11373.438477
182.0	3304.377441
183.3	819.552246
183.9	105.711403
184.9	4725.845215
185.5	812.846985
186.9	11779.446289
187.5	2951.213379
188.3	8151.177734
189.2	18035.882813
190.0	9514.031250
191.0	416752.625000
192.0	72862.351563
193.0	281667.468750
194.1	48120.339844
195.1	102285.851563
196.2	18254.867188
197.1	20790.619141
198.0	5436.579102
198.8	3244.714111
199.5	583.048889
200.2	2508.084961
200.7	0.105794
201.7	617.128662
202.2	6788.366699
203.0	8264.088867
204.0	12985.938477
204.8	13053.022461
205.3	1372.963379
205.9	3759.521973
207.0	810705.500000
208.1	149269.187500
209.0	73201.875000
210.1	23352.208984
211.1	6660.287109
211.9	1120.564819
212.5	0.225633
213.2	769.110596
214.3	1.376445
215.3	1332.503296
216.2	4746.592285
217.2	1764.327148
218.1	11544.051758
219.1	4673.209961
220.2	39.715172
221.0	70105.328125
222.1	23209.291016
223.1	21613.523438
224.2	6111.333496
225.2	4620.226563
225.7	708.507080
226.9	2807.216309
227.8	2213.105469
228.5	183.844238
229.3	432.415161
230.0	589.180420
230.7	2352.106689
232.1	1725.648682
232.8	2627.775635
233.8	128.902237
235.0	17805.208984
235.9	7022.233887
236.8	2342.348145
237.6	4483.565430
238.9	6145.391113
239.6	3857.382324
240.8	3352.379395
241.9	2305.012207
242.5	7.115348
243.3	112.568260
244.5	15.739820
245.8	1848.429688
246.8	1696.750366
247.7	4052.124268
248.9	45186.003906
249.8	4558.635254
251.0	25777.304688
252.0	9704.586914
252.9	61482.132813
253.7	7515.208496
254.2	10683.076172
255.1	10565.000977
255.9	4076.029541
256.5	852.742065
257.0	1593.135864
257.5	5.387947
258.2	356.373230
259.0	10434.460938
259.9	7753.467773
261.0	168.744675
261.9	1606.075073
263.0	2910.864258
264.2	130332.351563
265.1	136057.156250
266.2	52409.039063
267.0	83501.421875
268.0	21657.197266
268.8	18027.843750
269.3	11316.228516
269.9	819.582825
270.9	2014.234619
271.7	0.416338
272.6	784.575867
273.4	0.130502
274.4	4822.770508
274.9	213.464325
275.7	597.666626
277.0	1315.684692
277.9	37.617008
279.0	7329.348633
281.0	469195.437500
282.1	102818.781250
283.0	74233.968750
284.0	19621.126953
285.1	14509.780273
286.2	518.766724
287.4	4.249266
288.5	257.501678
289.3	0.002679
289.8	3.405241
291.2	104.900795
292.0	0.134582
293.0	7336.730957
293.9	1458.751831
295.0	31320.843750
296.0	4041.847412
296.7	5457.928711
297.3	6712.796387
298.2	627.132080
298.9	5069.781250
299.4	1504.064941
300.1	0.911266
301.0	1941.605103
301.9	43.417351
303.0	148.149918
303.9	1413.439087
306.1	1.170726
306.6	2445.724609
307.3	872.039734
308.0	514.667603
309.0	5357.240723
310.1	1847.898193
310.9	5311.280762
311.8	3550.440186
312.6	7488.646973
313.3	3523.861816
314.4	1294.216309
315.3	6814.108887
316.0	439.700287
317.1	234.508163
318.2	750.921631
319.3	1913.955200
320.0	92.205925
321.4	749.701416
323.0	8571.783203
324.2	1796.904175
324.9	33897.796875
325.5	4843.627930
326.9	101312.953125
328.0	26454.876953
329.0	26492.476563
329.7	5175.633301
330.2	165.894699
330.9	8330.181641
331.8	8872.187500
332.4	152.539749
333.2	4176.095703
334.0	1111.045166
334.7	1453.947754
335.4	1586.935303
336.2	342.152313
337.0	807.571777
337.8	39.947243
338.5	2962.634766
339.2	8092.276367
340.2	4106.041016
341.0	125629.296875
342.0	39647.460938
342.7	8718.208008
343.2	28360.236328
344.0	7836.973145
345.0	9510.325195
346.1	7409.936035
347.0	901.882263
347.6	3607.200195
348.6	3082.469971
349.5	225.281357
350.2	0.010173
351.4	549.882019
352.7	2465.409668
353.7	674.589417
354.2	2721.848145
355.0	168877.875000
356.1	57271.550781
357.1	17985.089844
358.0	12686.428711
359.0	4576.269043
360.6	0.029435
361.2	259.178741
362.1	0.008022
362.6	1543.778809
363.2	1737.037231
364.1	3581.101807
365.0	3615.485596
366.1	15244.887695
367.1	8517.189453
368.9	8943.949219
369.6	3537.824707
370.1	241.267471
371.1	1785.304443
372.8	7225.012695
373.8	1638.930664
375.0	2144.713379
375.7	71.693436
376.2	8.258340
376.9	1460.984863
378.4	1410.180542
379.4	241.074509
381.0	2371.491211
381.9	11.224747
383.0	7775.288574
383.6	2840.442383
385.0	16486.296875
385.6	1760.523438
386.6	1733.909424
387.3	2057.917480
388.9	3467.186279
389.6	6593.485840
390.4	1193.760620
391.2	147.342606
392.0	2649.051270
393.1	0.031073
393.7	0.262965
395.3	2699.157227
395.9	739.760376
396.8	479.374054
397.7	1523.574585
398.7	2981.623291
399.2	6576.594727
399.8	1074.266113
